Wavelength(nm)	T%
1100		0.007580611
1099.5		0.007217569
1099		0.006749007
1098.5		0.006817421
1098		0.006699649
1097.5		0.006377864
1097		0.006112098
1096.5		0.006300741
1096		0.005481807
1095.5		0.00529526
1095		0.005030914
1094.5		0.00514137
1094		0.00530575
1093.5		0.004514816
1093		0.004575627
1092.5		0.004581562
1092		0.00423852
1091.5		0.004391818
1091		0.003944179
1090.5		0.003633082
1090		0.003161527
1089.5		0.003291968
1089		0.003515797
1088.5		0.003262366
1088		0.00264353
1087.5		0.003444974
1087		0.003049738
1086.5		0.002730116
1086		0.003036411
1085.5		0.002447229
1085		0.001661666
1084.5		0.002023164
1084		0.002214327
1083.5		0.001988209
1083		0.002080371
1082.5		0.002200335
1082		0.001765128
1081.5		0.001931496
1081		0.001946748
1080.5		0.001335916
1080		0.001055827
1079.5		0.001939379
1079		0.001309821
1078.5		0.001297166
1078		0.00134464
1077.5		0.001734343
1077		0.001130763
1076.5		0.000925431
1076		0.000698722
1075.5		0.000746296
1075		0.000765885
1074.5		0.000480863
1074		0.000837428
1073.5		0.000731348
1073		0.000611424
1072.5		0.000831022
1072		0.000473029
1071.5		0.000820777
1071		0.000637746
1070.5		0.000866807
1070		6.43E-05
1069.5		0.000474362
1069		0.000601313
1068.5		0.00033267
1068		0.000598077
1067.5		0.000292517
1067		0.000225319
1066.5		0.000401226
1066		0.000103851
1065.5		-0.000136473
1065		0.000246142
1064.5		0.00020471
1064		-3.31E-07
1063.5		3.45E-05
1063		0.000245685
1062.5		0.0002565
1062		0.00027905
1061.5		0.000616662
1061		0.000151858
1060.5		-0.000335694
1060		-0.000524374
1059.5		0.000356879
1059		-0.000337699
1058.5		0.000275502
1058		-0.000219797
1057.5		9.55E-05
1057		0.000218028
1056.5		0.000343062
1056		-0.000386679
1055.5		0.000157031
1055		-0.000723801
1054.5		-0.000326526
1054		-0.000474742
1053.5		-0.00086474
1053		-0.000208096
1052.5		-8.56E-05
1052		-0.000519736
1051.5		-5.01E-05
1051		-0.00082847
1050.5		0.000299709
1050		-0.000193998
1049.5		-0.000446041
1049		-0.000555335
1048.5		-0.000608425
1048		-0.000219129
1047.5		-0.000230591
1047		-0.000113261
1046.5		-0.000264041
1046		-0.000914711
1045.5		-0.000247801
1045		-0.000666925
1044.5		-0.000320715
1044		-0.000522667
1043.5		-0.000742273
1043		-0.000241368
1042.5		-0.00024379
1042		-0.001004987
1041.5		-0.000725297
1041		-0.000538141
1040.5		-0.000397402
1040		-0.000864728
1039.5		-0.00025794
1039		-0.000493059
1038.5		-0.000655646
1038		-0.000618179
1037.5		-0.000257026
1037		-0.000537122
1036.5		-0.000381236
1036		-0.000848427
1035.5		-0.000174305
1035		-0.000593113
1034.5		-0.000731503
1034		-0.000301174
1033.5		-0.00048798
1033		-0.000298771
1032.5		-0.00091676
1032		-0.000751994
1031.5		-0.001260876
1031		-0.000522522
1030.5		-0.000836135
1030		-0.000800382
1029.5		-0.000674072
1029		-0.000884086
1028.5		-0.000522925
1028		-0.000492022
1027.5		-0.000668803
1027		-0.00087272
1026.5		-0.000558493
1026		-0.001043721
1025.5		-0.000649049
1025		-0.000786008
1024.5		-0.001115034
1024		-0.000820028
1023.5		-0.000394617
1023		-0.001087236
1022.5		-0.000891712
1022		-0.000794191
1021.5		-0.000575736
1021		-0.001146468
1020.5		-0.001103127
1020		-0.000747637
1019.5		-0.000666792
1019		-0.000799475
1018.5		-0.000436998
1018		-0.000984561
1017.5		-0.000666847
1017		-0.001095757
1016.5		-0.000768944
1016		-0.000464638
1015.5		-0.000799614
1015		-0.001054795
1014.5		-0.000455181
1014		-0.000667164
1013.5		-0.001085695
1013		-0.001077223
1012.5		-0.000868754
1012		-0.00073047
1011.5		-0.000653845
1011		-0.000888044
1010.5		-0.000298321
1010		-0.000802396
1009.5		-0.001140499
1009		-0.000982912
1008.5		-0.00122664
1008		-0.001194232
1007.5		-0.00138616
1007		-0.000881766
1006.5		-0.001152497
1006		-0.000998116
1005.5		-0.001108549
1005		-0.000566218
1004.5		-0.00023104
1004		-0.000605829
1003.5		-0.001579323
1003		-0.001378909
1002.5		-0.001409514
1002		-0.000999509
1001.5		-0.000572571
1001		-0.001005957
1000.5		-0.001093617
1000		-0.000781057
999.5		-0.001166353
999		-0.000959736
998.5		-0.000992638
998		-0.000794096
997.5		-0.000492559
997		-0.000821029
996.5		-0.000980884
996		-0.001075531
995.5		-0.000911748
995		-0.000470148
994.5		-0.001025767
994		-0.000244463
993.5		-0.000614034
993		-0.000670792
992.5		-0.000547082
992		-0.000343545
991.5		-0.000854934
991		-0.001254632
990.5		-0.001106105
990		-0.00080883
989.5		-0.001407448
989		-0.001365746
988.5		-0.001080956
988		-0.00094002
987.5		-0.00086172
987		-0.00076061
986.5		-0.001550232
986		-0.001116022
985.5		-0.000888619
985		-0.001111321
984.5		-0.000992931
984		-0.000993479
983.5		-0.000775497
983		-0.000889653
982.5		-0.000810219
982		-0.001017065
981.5		-0.000113289
981		-0.001209671
980.5		-0.00162705
980		-0.000806774
979.5		-0.001299983
979		-0.000932991
978.5		-0.001270766
978		-0.000840516
977.5		-0.000682625
977		-0.000806103
976.5		-0.000520806
976		-0.001107739
975.5		-0.001273113
975		-0.001003795
974.5		-0.001044358
974		-0.000990705
973.5		-0.001690447
973		-0.000797217
972.5		-0.000833339
972		-0.000990922
971.5		-0.000896708
971		-0.001120902
970.5		-0.000654717
970		-0.001192037
969.5		-0.000823405
969		-0.001087615
968.5		-0.000466386
968		-0.000882509
967.5		-0.000876228
967		-0.001017735
966.5		-0.000860456
966		-0.000473189
965.5		-0.001136514
965		-0.001313149
964.5		-0.000688769
964		-0.001084873
963.5		-0.000578313
963		-0.000200289
962.5		-0.00090288
962		-0.001547769
961.5		-0.001319231
961		-0.001326555
960.5		-0.000956713
960		-0.001027614
959.5		-0.000889685
959		-0.001047035
958.5		-0.000775825
958		-0.001305966
957.5		-0.000916437
957		-0.000700212
956.5		-0.000702496
956		-0.001209821
955.5		-0.000657566
955		-0.000238231
954.5		-0.001053253
954		-0.000914073
953.5		-0.000818666
953		-0.000763298
952.5		-0.000702597
952		-0.000758025
951.5		-0.000583783
951		-0.001088123
950.5		-0.000613411
950		-0.001163767
949.5		-0.001008773
949		-0.000721692
948.5		-0.000764738
948		-0.000691143
947.5		-0.000813221
947		-0.001031208
946.5		-0.001076341
946		-0.000648164
945.5		-0.000631662
945		-0.00069894
944.5		-0.000498426
944		-0.001078077
943.5		-0.000844898
943		-0.001088202
942.5		-0.000767206
942		-0.001009994
941.5		-0.001115554
941		-0.000843808
940.5		-0.000569354
940		-0.000812587
939.5		-0.001422405
939		-0.00019557
938.5		-0.000298549
938		-0.000332048
937.5		-0.000744879
937		-0.001026943
936.5		-0.001018258
936		-0.000928393
935.5		-0.000944859
935		-0.001160307
934.5		-0.000490716
934		-0.000322674
933.5		-0.001212436
933		-0.00069791
932.5		-0.000574715
932		-0.000248402
931.5		-0.000393784
931		-0.000809063
930.5		-0.000572309
930		-0.000898184
929.5		-0.001149595
929		-0.000593729
928.5		-0.000957205
928		-9.68E-05
927.5		-0.000979166
927		-0.000160077
926.5		-0.000910729
926		-0.000463203
925.5		-0.000454585
925		-0.001237627
924.5		-0.000217125
924		-0.00013
923.5		-0.000625619
923		-0.000181728
922.5		-1.19E-05
922		-0.000575908
921.5		-0.00060021
921		-0.000403052
920.5		-1.81E-05
920		7.96E-05
919.5		-0.0003214
919		-2.48E-05
918.5		-0.000458436
918		-0.000200053
917.5		-0.000146125
917		2.11E-05
916.5		0.000570465
916		2.27E-05
915.5		2.60E-05
915		1.97E-05
914.5		0.000284338
914		0.000253402
913.5		-0.000187649
913		0.000154359
912.5		0.000623422
912		9.69E-05
911.5		0.000118812
911		0.000438095
910.5		0.000250647
910		0.00101297
909.5		1.82E-05
909		0.000681452
908.5		0.0012448
908		0.000952052
907.5		0.001011054
907		0.001221472
906.5		0.0007181
906		0.001296624
905.5		0.001348045
905		0.001238759
904.5		0.00093032
904		0.001906213
903.5		0.001558155
903		0.001286955
902.5		0.001863669
902		0.001705348
901.5		0.001988865
901		0.002044369
900.5		0.002014791
900		0.001981359
899.5		0.00326233
899		0.004589537
898.5		0.004433541
898		0.00504283
897.5		0.005071929
897		0.005291895
896.5		0.006216838
896		0.005580115
895.5		0.005941414
895		0.006279189
894.5		0.00594754
894		0.006242448
893.5		0.006684701
893		0.006831333
892.5		0.00702591
892		0.007390261
891.5		0.007681177
891		0.007960221
890.5		0.008239488
890		0.008478586
889.5		0.008637229
889		0.009140937
888.5		0.009737127
888		0.010087598
887.5		0.010346369
887		0.011077881
886.5		0.011637852
886		0.01177692
885.5		0.013262125
885		0.013752313
884.5		0.014096848
884		0.014530811
883.5		0.014747854
883		0.016230127
882.5		0.016562153
882		0.017634297
881.5		0.018221315
881		0.01957644
880.5		0.02019451
880		0.021338349
879.5		0.022669964
879		0.023663979
878.5		0.024545455
878		0.026772801
877.5		0.027945049
877		0.029540962
876.5		0.030615751
876		0.032624882
875.5		0.035334386
875		0.03659416
874.5		0.038258608
874		0.041126795
873.5		0.043667957
873		0.046696261
872.5		0.049457636
872		0.052070163
871.5		0.055191386
871		0.059530355
870.5		0.063816682
870		0.066948719
869.5		0.072071821
869		0.076704234
868.5		0.080879316
868		0.087939948
867.5		0.094324246
867		0.099894054
866.5		0.107065916
866		0.114766523
865.5		0.122292236
865		0.132399619
864.5		0.142511204
864		0.151814699
863.5		0.163417757
863		0.177055731
862.5		0.189907432
862		0.204601646
861.5		0.220504195
861		0.239636511
860.5		0.257407606
860		0.280131429
859.5		0.302065969
859		0.327415407
858.5		0.355491281
858		0.385690779
857.5		0.419060737
857		0.455701619
856.5		0.497261375
856		0.543037355
855.5		0.591288805
855		0.645529032
854.5		0.70700717
854		0.771639645
853.5		0.848897815
853		0.930882156
852.5		1.021932602
852		1.124016523
851.5		1.239563942
851		1.365417004
850.5		1.508193016
850		1.669251204
849.5		1.850268602
849		2.045648575
848.5		2.273559093
848		2.528186798
847.5		2.811009884
847		3.136580706
846.5		3.50114584
846		3.910829544
845.5		4.373515606
845		4.904304504
844.5		5.492045879
844		6.156146049
843.5		6.931222439
843		7.804793358
842.5		8.768055916
842		9.88088131
841.5		11.13038445
841		12.53506851
840.5		14.13495255
840		15.94065571
839.5		17.92860031
839		20.15132332
838.5		22.67166901
838		25.37621307
837.5		28.3154068
837		31.59989738
836.5		35.10313797
836		38.76749802
835.5		42.66215515
835		46.68254089
834.5		50.78051758
834		54.95833588
833.5		59.12253189
833		63.07929611
832.5		66.8911972
832		70.55690002
831.5		73.87760925
831		76.84490967
830.5		79.55445099
830		81.93238068
829.5		83.91054535
829		85.64524078
828.5		87.03919983
828		88.17420197
827.5		89.13237762
827		89.87354279
826.5		90.40861511
826		90.85943604
825.5		91.17804718
825		91.4754715
824.5		91.64308167
824		91.78917694
823.5		91.94454193
823		92.0644455
822.5		92.15847015
822		92.26760864
821.5		92.36448669
821		92.47370148
820.5		92.61712646
820		92.73819733
819.5		92.88408661
819		93.03778839
818.5		93.20730591
818		93.37239075
817.5		93.53176117
817		93.6897583
816.5		93.88813019
816		94.03825378
815.5		94.20290375
815		94.35831451
814.5		94.51628113
814		94.67720032
813.5		94.80600739
813		94.94622803
812.5		95.06137848
812		95.17392731
811.5		95.27546692
811		95.3635788
810.5		95.44624329
810		95.52120972
809.5		95.56697845
809		95.61582184
808.5		95.6499176
808		95.689888
807.5		95.73256683
807		95.73563385
806.5		95.78245544
806		95.79551697
805.5		95.81730652
805		95.81291962
804.5		95.82164001
804		95.8212204
803.5		95.81496429
803		95.78368378
802.5		95.80169678
802		95.79380798
801.5		95.81798553
801		95.79664612
800.5		95.78442383
800		95.80921173
799.5		95.79720306
799		95.80451202
798.5		95.80697632
798		95.8132782
797.5		95.82191467
797		95.83805084
796.5		95.83297729
796		95.84190369
795.5		95.84574127
795		95.8618927
794.5		95.84588623
794		95.86366272
793.5		95.87743378
793		95.85824585
792.5		95.86368561
792		95.87976074
791.5		95.88072968
791		95.8772049
790.5		95.86302948
790		95.85864258
789.5		95.86722565
789		95.84301758
788.5		95.82962036
788		95.81957245
787.5		95.80355072
787		95.78813171
786.5		95.75852966
786		95.74642181
785.5		95.71019745
785		95.69126892
784.5		95.66134644
784		95.62570953
783.5		95.5956955
783		95.57577515
782.5		95.54384613
782		95.52056122
781.5		95.46524048
781		95.45470428
780.5		95.41215515
780		95.37973022
779.5		95.36675262
779		95.32932281
778.5		95.30192566
778		95.28160095
777.5		95.24185181
777		95.22112274
776.5		95.19625854
776		95.17584991
775.5		95.1620636
775		95.14472198
774.5		95.14317322
774		95.12905884
773.5		95.12471008
773		95.13450623
772.5		95.09485626
772		95.08311462
771.5		95.10850525
771		95.09574127
770.5		95.11021423
770		95.11169434
769.5		95.11234283
769		95.13075256
768.5		95.12202454
768		95.13876343
767.5		95.15010071
767		95.17456818
766.5		95.17765808
766		95.1914444
765.5		95.20624542
765		95.19542694
764.5		95.21218872
764		95.23951721
763.5		95.25565338
763		95.25862122
762.5		95.27880096
762		95.28392792
761.5		95.28278351
761		95.29382324
760.5		95.32177734
760		95.32728577
759.5		95.32187653
759		95.33605194
758.5		95.33473969
758		95.31789398
757.5		95.30763245
757		95.33798218
756.5		95.33570099
756		95.32659912
755.5		95.31729889
755		95.29465485
754.5		95.28136444
754		95.24809265
753.5		95.2596817
753		95.2260437
752.5		95.22042084
752		95.20453644
751.5		95.17863464
751		95.14626312
750.5		95.12522125
750		95.10609436
749.5		95.07450867
749		95.04815674
748.5		95.01524353
748		94.97925568
747.5		94.9317627
747		94.90943146
746.5		94.89030457
746		94.8444519
745.5		94.8015213
745		94.75635529
744.5		94.70663452
744		94.66044617
743.5		94.62221527
743		94.57401276
742.5		94.51638031
742		94.47014618
741.5		94.40635681
741		94.34682465
740.5		94.29392242
740		94.23738861
739.5		94.18611145
739		94.1255188
738.5		94.04033661
738		93.96652222
737.5		93.91918182
737		93.84475708
736.5		93.7807312
736		93.6999588
735.5		93.60231018
735		93.52802277
734.5		93.45654297
734		93.3839798
733.5		93.27603912
733		93.19709778
732.5		93.08333588
732		92.96907043
731.5		92.88006592
731		92.78039551
730.5		92.6548996
730		92.53128815
729.5		92.39355469
729		92.27828979
728.5		92.14762878
728		92.01120758
727.5		91.84920502
727		91.69103241
726.5		91.51926422
726		91.37624359
725.5		91.20116425
725		91.01846313
724.5		90.80851746
724		90.60530853
723.5		90.4164505
723		90.21522522
722.5		89.96643066
722		89.70718384
721.5		89.46877289
721		89.22496796
720.5		88.96997833
720		88.6855011
719.5		88.38243866
719		88.04993439
718.5		87.73252106
718		87.42307281
717.5		87.06118011
717		86.71350098
716.5		86.30667114
716		85.90435028
715.5		85.50032806
715		85.07277679
714.5		84.61270905
714		84.14619446
713.5		83.68566132
713		83.1696167
712.5		82.63826752
712		82.07319641
711.5		81.49776459
711		80.91566467
710.5		80.2983551
710		79.66182709
709.5		78.95226288
709		78.26065826
708.5		77.56466675
708		76.81013489
707.5		76.02332306
707		75.20199585
706.5		74.35726166
706		73.49182892
705.5		72.58370209
705		71.62917328
704.5		70.65502167
704		69.67398071
703.5		68.65057373
703		67.53157806
702.5		66.41392517
702		65.30049133
701.5		64.1132431
701		62.90076828
700.5		61.65329742
700		60.3396225
699.5		59.03224182
699		57.67721558
698.5		56.30113983
698		54.84798431
697.5		53.40857697
697		51.95764923
696.5		50.42841339
696		48.87718201
695.5		47.34507751
695		45.77758408
694.5		44.19038773
694		42.58345413
693.5		40.94458771
693		39.32208252
692.5		37.70156479
692		36.07527542
691.5		34.42626953
691		32.82500076
690.5		31.23069954
690		29.60943604
689.5		28.02475739
689		26.50090408
688.5		24.95796776
688		23.44605637
687.5		21.98884773
687		20.56201553
686.5		19.17264557
686		17.84124374
685.5		16.56507874
685		15.33567429
684.5		14.16760349
684		13.04580879
683.5		11.94180775
683		10.91126728
682.5		9.956674576
682		9.042976379
681.5		8.179665565
681		7.386119843
680.5		6.641239166
680		5.947508812
679.5		5.317873955
679		4.737729073
678.5		4.197466373
678		3.715708733
677.5		3.278463364
677		2.872783422
676.5		2.511223078
676		2.19240737
675.5		1.905382037
675		1.649240375
674.5		1.423022389
674		1.222652555
673.5		1.04670608
673		0.894995153
672.5		0.76246047
672		0.645109952
671.5		0.546215832
671		0.461595595
670.5		0.387049079
670		0.324051023
669.5		0.271440953
669		0.226123884
668.5		0.187893376
668		0.156080738
667.5		0.128919214
667		0.106423065
666.5		0.087752111
666		0.071930952
665.5		0.058957316
665		0.04833544
664.5		0.039519116
664		0.03219182
663.5		0.026246862
663		0.021295417
662.5		0.017446682
662		0.014113073
661.5		0.011525824
661		0.009242465
660.5		0.00757693
660		0.006155073
659.5		0.005044228
659		0.004103122
658.5		0.00331062
658		0.002723599
657.5		0.002198082
657		0.001799923
656.5		0.001408363
656		0.001163319
655.5		0.001017473
655		0.000918599
654.5		0.000695889
654		0.000610786
653.5		0.000354128
653		0.0002913
652.5		0.00029844
652		0.00025101
651.5		0.000155037
651		0.00023668
650.5		0.000222214
650		0.000147874
649.5		4.15E-05
649		0.000204555
648.5		0.00016933
648		9.26E-05
647.5		0.000176726
647		0.000167102
646.5		0.000126034
646		0.000201041
645.5		0.00019285
645		0.000231478
644.5		6.21E-05
644		0.00022443
643.5		8.13E-05
643		3.36E-05
642.5		0.000147726
642		-8.82E-06
641.5		0.000103773
641		-6.45E-05
640.5		0.000128281
640		0.000123929
639.5		6.82E-05
639		-3.95E-05
638.5		7.18E-05
638		8.55E-06
637.5		5.02E-05
637		-2.54E-05
636.5		-0.000155466
636		0.000128553
635.5		8.39E-05
635		9.38E-05
634.5		1.70E-05
634		5.71E-05
633.5		3.27E-05
633		2.27E-05
632.5		3.77E-05
632		0.000175429
631.5		0.00010708
631		0.000106007
630.5		0.000116434
630		4.67E-05
629.5		8.71E-05
629		0.000148547
628.5		-4.47E-05
628		4.59E-05
627.5		4.73E-05
627		0.000101405
626.5		8.38E-05
626		-0.000164212
625.5		5.41E-06
625		5.28E-05
624.5		9.42E-05
624		-2.85E-05
623.5		0.000145348
623		-6.15E-05
622.5		0.000105983
622		-5.99E-05
621.5		-1.44E-06
621		0.000118236
620.5		1.73E-05
620		0.000173804
619.5		-5.72E-06
619		-6.80E-06
618.5		0.000197768
618		-4.93E-05
617.5		2.99E-05
617		7.27E-05
616.5		0.000185146
616		-3.34E-05
615.5		4.23E-05
615		4.22E-05
614.5		0.000235429
614		4.28E-05
613.5		-0.000140175
613		0.000219985
612.5		0.000231466
612		0.000156363
611.5		0.000120405
611		1.98E-05
610.5		0.000214761
610		4.17E-05
609.5		4.59E-05
609		1.54E-05
608.5		0.0001438
608		0.000168785
607.5		0.000139296
607		3.40E-05
606.5		2.09E-05
606		3.19E-05
605.5		0.000147017
605		0.000108229
604.5		0.000108009
604		9.19E-05
603.5		0.000206672
603		4.54E-05
602.5		0.000195196
602		8.85E-05
601.5		0.000125827
601		5.31E-05
600.5		8.44E-05
600		5.49E-05
599.5		0.000106746
599		3.00E-05
598.5		0.000315107
598		0.000195656
597.5		0.000104103
597		-1.91E-05
596.5		0.00011445
596		0.000118889
595.5		0.000112976
595		7.20E-06
594.5		0.000118604
594		3.40E-05
593.5		-3.21E-05
593		-0.000125411
592.5		9.07E-05
592		0.000173093
591.5		5.80E-05
591		5.14E-05
590.5		0.000110887
590		-2.98E-05
589.5		6.45E-05
589		0.00023178
588.5		1.51E-05
588		0.000164808
587.5		0.000212233
587		9.56E-05
586.5		6.45E-05
586		8.14E-05
585.5		0.00023777
585		0.00024723
584.5		6.77E-05
584		-3.19E-05
583.5		0.000190443
583		0.000137152
582.5		0.00011669
582		0.000191893
581.5		0.000140213
581		0.000105989
580.5		8.07E-05
580		0.000232087
579.5		1.56E-05
579		0.00011218
578.5		0.0001406
578		0.000146619
577.5		0.000132251
577		4.67E-05
576.5		0.0001623
576		0.000127385
575.5		9.40E-05
575		0.000150014
574.5		-3.91E-05
574		-8.53E-05
573.5		-4.59E-05
573		0.000159489
572.5		0.000112017
572		8.10E-05
571.5		4.36E-05
571		-7.98E-05
570.5		0.000140136
570		0.000207141
569.5		0.000172642
569		7.63E-05
568.5		-3.37E-05
568		7.32E-05
567.5		0.000124018
567		0.000112439
566.5		0.000172883
566		5.92E-05
565.5		2.67E-05
565		9.13E-05
564.5		-4.60E-05
564		1.75E-05
563.5		-4.80E-05
563		6.41E-05
562.5		0.00016829
562		3.58E-05
561.5		-6.80E-05
561		0.000217381
560.5		-3.87E-05
560		0.000204312
559.5		5.43E-05
559		-3.49E-05
558.5		-4.57E-05
558		-6.27E-05
557.5		-5.15E-05
557		3.71E-05
556.5		0.000183873
556		0.000168137
555.5		0.00010387
555		0.000157625
554.5		0.000132195
554		0.000144107
553.5		0.000118368
553		0.000196203
552.5		4.10E-05
552		0.000210843
551.5		0.000162016
551		0.00016317
550.5		3.48E-05
550		3.70E-05
549.5		5.42E-05
549		-2.56E-05
548.5		6.55E-05
548		0.000128054
547.5		0.000151369
547		7.74E-05
546.5		0.000104445
546		3.69E-05
545.5		0.000123473
545		8.22E-05
544.5		-6.87E-06
544		9.94E-06
543.5		4.09E-05
543		4.12E-05
542.5		0.000192362
542		0.000128932
541.5		3.65E-05
541		0.000133534
540.5		0.000159017
540		8.19E-05
539.5		8.03E-05
539		0.000184585
538.5		6.36E-05
538		0.000119467
537.5		0.000199331
537		7.54E-05
536.5		2.19E-05
536		0.000163001
535.5		9.47E-05
535		-3.27E-05
534.5		3.18E-05
534		0.000110332
533.5		5.61E-05
533		-5.03E-06
532.5		7.46E-05
532		-1.90E-05
531.5		2.88E-05
531		0.00014732
530.5		3.16E-06
530		2.47E-06
529.5		-1.54E-05
529		-4.40E-05
528.5		8.10E-05
528		4.33E-05
527.5		6.43E-06
527		0.000167362
526.5		0.000121968
526		5.71E-05
525.5		-0.000128012
525		6.76E-05
524.5		0.000212348
524		0.000127173
523.5		0.000150626
523		0.000128946
522.5		6.67E-05
522		6.52E-06
521.5		3.06E-05
521		0.00013403
520.5		0.000183015
520		3.29E-06
519.5		0.000181266
519		0.000110042
518.5		4.87E-05
518		8.14E-05
517.5		0.000181468
517		2.92E-05
516.5		0.000118306
516		0.00013668
515.5		0.000132706
515		0.000111784
514.5		0.000201486
514		0.000142345
513.5		5.86E-05
513		7.92E-05
512.5		0.000113219
512		0.000273505
511.5		0.000165464
511		0.000244828
510.5		0.000109717
510		0.000174839
509.5		1.97E-05
509		9.41E-05
508.5		9.51E-05
508		0.000208091
507.5		0.000122764
507		0.000119549
506.5		-8.24E-06
506		5.98E-05
505.5		0.000129185
505		0.000161329
504.5		7.72E-05
504		-2.49E-06
503.5		-3.54E-05
503		6.84E-05
502.5		0.000147345
502		0.00017505
501.5		0.00014095
501		2.57E-05
500.5		0.000148418
500		0.000120898
499.5		0.000237897
499		9.36E-05
498.5		0.000166177
498		0.000155697
497.5		0.000101092
497		4.01E-05
496.5		7.02E-05
496		-8.57E-06
495.5		0.000144802
495		6.86E-05
494.5		-3.53E-05
494		3.69E-05
493.5		5.24E-06
493		8.65E-05
492.5		9.41E-05
492		0.000208336
491.5		9.65E-05
491		5.44E-05
490.5		-1.53E-05
490		5.36E-05
489.5		5.80E-05
489		-1.15E-05
488.5		0.000223161
488		-4.51E-05
487.5		0.00017856
487		0.000215776
486.5		1.40E-05
486		3.48E-05
485.5		0.000253472
485		-7.75E-06
484.5		8.59E-05
484		5.60E-05
483.5		-5.06E-06
483		9.27E-05
482.5		2.37E-05
482		7.04E-05
481.5		1.19E-05
481		7.98E-05
480.5		0.000227044
480		0.000117041
479.5		0.000107088
479		8.55E-05
478.5		4.00E-06
478		0.000104829
477.5		6.60E-05
477		1.88E-05
476.5		4.13E-05
476		4.56E-05
475.5		8.63E-06
475		0.000189466
474.5		-5.86E-05
474		0.000125026
473.5		6.63E-05
473		-2.12E-05
472.5		0.000134492
472		0.000176247
471.5		0.000258003
471		0.000112853
470.5		0.000139115
470		7.26E-05
469.5		0.000246569
469		0.000125262
468.5		0.000220429
468		-3.53E-05
467.5		8.88E-05
467		0.000166575
466.5		-5.59E-05
466		6.10E-05
465.5		0.000153766
465		-0.000195374
464.5		7.91E-05
464		9.41E-06
463.5		-6.94E-05
463		9.96E-05
462.5		2.27E-05
462		8.19E-05
461.5		-0.000104895
461		0.000124711
460.5		-1.01E-05
460		8.44E-05
459.5		0.000119523
459		7.06E-05
458.5		1.34E-06
458		5.74E-05
457.5		0.000121914
457		0.000194183
456.5		0.000319957
456		0.000287181
455.5		0.000102411
455		0.000212743
454.5		4.00E-05
454		-1.94E-05
453.5		-4.13E-05
453		8.84E-05
452.5		-3.20E-05
452		8.65E-05
451.5		4.16E-05
451		6.80E-06
450.5		9.09E-05
450		2.28E-05
449.5		8.28E-05
449		4.71E-05
448.5		0.000132407
448		3.96E-05
447.5		8.64E-05
447		7.44E-06
446.5		7.56E-05
446		6.64E-05
445.5		0.000147402
445		8.90E-05
444.5		-9.41E-06
444		0.000383268
443.5		0.000215836
443		0.000154213
442.5		3.87E-05
442		4.88E-05
441.5		-5.42E-06
441		-2.12E-05
440.5		2.30E-05
440		9.56E-05
439.5		0.00011497
439		0.000131294
438.5		-0.000168302
438		9.73E-06
437.5		0.000109017
437		5.35E-05
436.5		-0.000127109
436		9.78E-05
435.5		-2.09E-05
435		5.52E-05
434.5		0.000121298
434		0.000209379
433.5		0.000125769
433		-9.35E-05
432.5		-4.95E-06
432		7.51E-06
431.5		-6.65E-05
431		7.69E-05
430.5		-3.28E-06
430		0.00010317
429.5		8.54E-05
429		9.26E-05
428.5		0.000145043
428		0.000208159
427.5		9.08E-05
427		0.000107542
426.5		0.00012181
426		9.08E-05
425.5		6.43E-05
425		0.000111926
424.5		-1.41E-05
424		4.78E-05
423.5		6.75E-05
423		6.24E-05
422.5		-1.95E-06
422		0.000128213
421.5		0.000124177
421		0.000214959
420.5		-2.22E-05
420		0.000233028
419.5		0.000194878
419		0.000156016
418.5		2.73E-05
418		0.000103277
417.5		0.000143937
417		0.000197954
416.5		2.40E-05
416		8.35E-05
415.5		0.000200835
415		0.000134162
414.5		6.15E-05
414		6.05E-05
413.5		7.93E-05
413		-8.01E-06
412.5		-6.39E-05
412		9.11E-05
411.5		0.000215033
411		9.04E-05
410.5		0.000255117
410		-9.95E-05
409.5		-1.40E-05
409		0.000208242
408.5		7.90E-05
408		1.62E-06
407.5		-1.34E-05
407		0.000118956
406.5		-2.44E-05
406		1.02E-06
405.5		8.46E-05
405		0.000194313
404.5		0.00018237
404		0.000154973
403.5		8.09E-05
403		7.50E-05
402.5		9.67E-05
402		0.000223403
401.5		5.67E-05
401		0.000210167
400.5		-8.57E-06
400		8.73E-05
399.5		3.36E-05
399		5.33E-05
398.5		1.44E-05
398		0.000187488
397.5		1.70E-05
397		0.000106535
396.5		-3.36E-05
396		0.000117511
395.5		2.22E-05
395		-0.00017179
394.5		2.55E-05
394		2.81E-05
393.5		0.000132966
393		0.000155794
392.5		0.000121835
392		1.10E-05
391.5		2.54E-05
391		0.000109363
390.5		9.42E-05
390		7.11E-05
389.5		0.000130406
389		0.000115621
388.5		4.27E-05
388		0.000126756
387.5		3.17E-05
387		0.000125565
386.5		5.11E-05
386		0.000132831
385.5		-3.08E-05
385		-6.28E-05
384.5		0.000159695
384		0.000159857
383.5		0.000197036
383		-2.52E-05
382.5		0.000399532
382		9.69E-05
381.5		-2.11E-05
381		0.000110666
380.5		-4.62E-05
380		8.18E-05
379.5		0.000215318
379		3.55E-05
378.5		1.83E-06
378		-7.08E-05
377.5		0.000130713
377		7.85E-05
376.5		0.000136657
376		7.55E-05
375.5		9.04E-05
375		8.31E-05
374.5		1.39E-05
374		0.000119623
373.5		0.000186036
373		2.08E-05
372.5		0.000164594
372		-7.36E-05
371.5		1.82E-05
371		-5.72E-05
370.5		0.000195723
370		0.000144248
369.5		-9.59E-06
369		3.57E-05
368.5		8.80E-05
368		0.000164743
367.5		8.80E-05
367		-1.10E-05
366.5		2.26E-05
366		-5.05E-05
365.5		-7.94E-05
365		-4.43E-05
364.5		-9.21E-05
364		0.000101941
363.5		4.76E-05
363		9.05E-05
362.5		6.96E-05
362		0.000107435
361.5		0.000289977
361		3.62E-05
360.5		9.39E-05
360		-1.53E-05
359.5		0.000138133
359		0.000179043
358.5		4.13E-05
358		0.000215691
357.5		0.000219386
357		8.47E-05
356.5		-4.63E-05
356		2.46E-05
355.5		0.000145377
355		8.90E-06
354.5		-3.55E-05
354		9.22E-06
353.5		8.35E-05
353		0.000127833
352.5		0.000107899
352		-8.06E-05
351.5		0.000103245
351		3.81E-05
350.5		0.000152054
350		0.000145817
349.5		-0.000611072
349		1.36E-05
348.5		-8.52E-06
348		3.71E-05
347.5		8.23E-05
347		0.000121393
346.5		5.21E-05
346		-1.06E-05
345.5		0.000102449
345		-6.87E-05
344.5		-1.77E-05
344		0.000116191
343.5		8.20E-05
343		0.000138208
342.5		0.000132254
342		0.000231083
341.5		0.000112952
341		6.05E-05
340.5		9.90E-05
340		9.46E-07
339.5		-9.16E-05
339		2.77E-05
338.5		6.60E-05
338		9.80E-05
337.5		0.000131348
337		9.99E-05
336.5		6.74E-05
336		0.000100729
335.5		0.000190079
335		-3.07E-06
334.5		0.000153101
334		0.000111978
333.5		0.000138914
333		0.000206343
332.5		9.84E-05
332		6.70E-06
331.5		0.000289152
331		0.000232454
330.5		0.000149254
330		-9.70E-05
329.5		7.47E-05
329		3.37E-05
328.5		0.0001022
328		-2.14E-05
327.5		4.25E-05
327		0.000220057
326.5		4.63E-05
326		5.20E-05
325.5		-4.48E-05
325		5.99E-06
324.5		-1.26E-05
324		5.18E-05
323.5		4.80E-07
323		0.000165856
322.5		7.98E-05
322		2.46E-05
321.5		2.51E-05
321		0.000138659
320.5		1.37E-05
320		7.51E-05
319.5		5.24E-05
319		-5.25E-05
318.5		8.18E-05
318		9.37E-05
317.5		8.09E-05
317		0.00025975
316.5		8.35E-05
316		9.73E-05
315.5		8.91E-05
315		6.41E-05
314.5		0.000151013
314		-4.29E-05
313.5		4.70E-06
313		0.000165727
312.5		6.07E-05
312		5.27E-05
311.5		-2.12E-05
311		5.87E-05
310.5		-4.10E-05
310		0.000145646
309.5		0.000143296
309		3.26E-05
308.5		3.48E-06
308		2.52E-05
307.5		0.000121475
307		5.45E-05
306.5		4.80E-05
306		6.49E-05
305.5		0.00012083
305		0.000173977
304.5		0.00012547
304		0.000160939
303.5		5.69E-05
303		-5.91E-08
302.5		0.000107221
302		0.000108094
301.5		-7.02E-05
301		7.33E-05
300.5		3.53E-05
300		0.000111867
