Wavelength(nm)	T%
1100		0.014252035
1099.5		0.013994076
1099		0.014045568
1098.5		0.013646774
1098		0.014046187
1097.5		0.0137688
1097		0.013675733
1096.5		0.013637445
1096		0.013657276
1095.5		0.013735181
1095		0.013969187
1094.5		0.013758912
1094		0.013805815
1093.5		0.01389771
1093		0.013892772
1092.5		0.013400808
1092		0.013963736
1091.5		0.014043576
1091		0.014169418
1090.5		0.013998653
1090		0.014106495
1089.5		0.013397701
1089		0.013303051
1088.5		0.014262974
1088		0.014465812
1087.5		0.014285358
1087		0.014885065
1086.5		0.014713251
1086		0.014314669
1085.5		0.015265605
1085		0.014567517
1084.5		0.014766477
1084		0.015039665
1083.5		0.015258114
1083		0.015902702
1082.5		0.014876199
1082		0.015700068
1081.5		0.015849691
1081		0.015836913
1080.5		0.016056024
1080		0.016260024
1079.5		0.016426412
1079		0.016049352
1078.5		0.016450686
1078		0.015850326
1077.5		0.016564028
1077		0.016987387
1076.5		0.016926242
1076		0.016734857
1075.5		0.016978098
1075		0.017399697
1074.5		0.017265238
1074		0.017111221
1073.5		0.017128969
1073		0.017139152
1072.5		0.016694397
1072		0.017047672
1071.5		0.016640445
1071		0.016994122
1070.5		0.017047836
1070		0.016954675
1069.5		0.016842362
1069		0.016584363
1068.5		0.016319985
1068		0.01668998
1067.5		0.015831869
1067		0.015748577
1066.5		0.015791062
1066		0.015640832
1065.5		0.014769334
1065		0.01463682
1064.5		0.01517668
1064		0.014602571
1063.5		0.014292299
1063		0.013749591
1062.5		0.013217501
1062		0.013147242
1061.5		0.013024418
1061		0.012718255
1060.5		0.012438048
1060		0.011953716
1059.5		0.011744994
1059		0.01164661
1058.5		0.011571752
1058		0.011045956
1057.5		0.010842184
1057		0.010141182
1056.5		0.010449931
1056		0.010270542
1055.5		0.009908797
1055		0.009569101
1054.5		0.009568363
1054		0.009362715
1053.5		0.009138871
1053		0.008671504
1052.5		0.008502493
1052		0.008414351
1051.5		0.00793109
1051		0.008062473
1050.5		0.007639934
1050		0.007236573
1049.5		0.007372053
1049		0.006856404
1048.5		0.006855912
1048		0.006659588
1047.5		0.007135934
1047		0.006629081
1046.5		0.006603824
1046		0.006606961
1045.5		0.005983918
1045		0.006542597
1044.5		0.006358645
1044		0.006234129
1043.5		0.005952655
1043		0.005983878
1042.5		0.005738159
1042		0.005560133
1041.5		0.005802248
1041		0.005871641
1040.5		0.005617757
1040		0.005511661
1039.5		0.005453061
1039		0.005608725
1038.5		0.005385175
1038		0.005251378
1037.5		0.005121059
1037		0.005119807
1036.5		0.005690608
1036		0.004953072
1035.5		0.00510724
1035		0.004910756
1034.5		0.005243581
1034		0.005073886
1033.5		0.00517893
1033		0.005559182
1032.5		0.005212134
1032		0.005350837
1031.5		0.004768482
1031		0.005233787
1030.5		0.004944267
1030		0.005433514
1029.5		0.004898342
1029		0.004763538
1028.5		0.005345877
1028		0.005245674
1027.5		0.005273229
1027		0.005164434
1026.5		0.005117766
1026		0.004580841
1025.5		0.004881324
1025		0.004634353
1024.5		0.004962375
1024		0.004710835
1023.5		0.005093143
1023		0.005144948
1022.5		0.004347792
1022		0.004122234
1021.5		0.004726539
1021		0.004372055
1020.5		0.004730873
1020		0.003952692
1019.5		0.003978408
1019		0.004213771
1018.5		0.003654884
1018		0.003320312
1017.5		0.003128048
1017		0.00331693
1016.5		0.003685557
1016		0.002807545
1015.5		0.003037786
1015		0.002836768
1014.5		0.002268686
1014		0.002985533
1013.5		0.0022469
1013		0.001897125
1012.5		0.001763787
1012		0.001606588
1011.5		0.002170826
1011		0.001655237
1010.5		0.001540723
1010		0.001559021
1009.5		0.001123245
1009		0.001513859
1008.5		0.001018368
1008		0.000502282
1007.5		0.001052156
1007		0.000650976
1006.5		0.00108574
1006		0.000393426
1005.5		0.000249771
1005		0.000294376
1004.5		-8.80E-05
1004		6.60E-06
1003.5		-0.0001506
1003		5.02E-05
1002.5		-7.38E-05
1002		-0.000235357
1001.5		0.000131729
1001		-0.000160688
1000.5		-0.000105055
1000		-0.000268964
999.5		-0.000241648
999		-0.000170949
998.5		-0.000614298
998		-0.000261233
997.5		-0.000324651
997		-0.000731989
996.5		-0.000191361
996		-0.000615668
995.5		-0.000694119
995		-0.000703676
994.5		-0.000536156
994		-0.000555556
993.5		-0.000667714
993		-0.000523722
992.5		-0.000362999
992		-0.000732531
991.5		-0.00090596
991		-0.00072426
990.5		-0.000724198
990		-0.000823812
989.5		-0.00082746
989		-0.000717725
988.5		-0.000543037
988		-0.000688961
987.5		-0.001023408
987		-0.000682216
986.5		-0.000702298
986		-0.000621463
985.5		6.09E-06
985		-0.000583775
984.5		-0.001193862
984		-0.00068163
983.5		-0.000898019
983		-0.000715904
982.5		-0.000568062
982		-0.001211654
981.5		-0.000840848
981		-0.000763648
980.5		-0.000131469
980		-0.000711733
979.5		-0.00140549
979		-0.000541213
978.5		-0.00053211
978		-0.000548021
977.5		-0.001207186
977		-0.000630757
976.5		-0.000802125
976		-0.001013715
975.5		-0.001045488
975		-0.000744059
974.5		-0.000866397
974		-0.001180612
973.5		-2.08E-05
973		-0.000990891
972.5		-0.000686355
972		-0.000626261
971.5		-0.000861988
971		-0.000900457
970.5		-0.000964259
970		-0.000734991
969.5		-0.000487685
969		-0.000583092
968.5		-0.001181062
968		-0.000949586
967.5		-0.000169326
967		-0.000894413
966.5		-0.001219096
966		-0.001201995
965.5		-0.000679148
965		-0.000957824
964.5		-0.001139036
964		-0.001317455
963.5		-0.00063646
963		-0.000658304
962.5		-0.000701216
962		-0.000935936
961.5		-0.000411533
961		-0.000478256
960.5		-0.000210892
960		-0.000961379
959.5		-0.000557541
959		-0.000687706
958.5		0.000252444
958		-0.00059174
957.5		-0.000508849
957		-0.000505536
956.5		-0.000546722
956		-2.90E-05
955.5		-0.000623949
955		-0.000558581
954.5		-0.000304214
954		-6.44E-05
953.5		-0.000843597
953		-5.31E-05
952.5		-0.000413925
952		-0.000849499
951.5		-0.000586885
951		-0.00031204
950.5		-0.000131871
950		5.48E-05
949.5		-0.000589821
949		0.000156854
948.5		-0.000369753
948		-9.58E-05
947.5		-5.11E-05
947		-0.000757284
946.5		-0.000287457
946		0.000188254
945.5		-0.000935323
945		-0.000661907
944.5		-0.000628876
944		-0.000383308
943.5		-0.000465089
943		-0.000531716
942.5		-0.000529852
942		-0.000343048
941.5		-0.000463218
941		-0.000985741
940.5		-0.000782415
940		-0.000448814
939.5		-0.000762124
939		-0.000643739
938.5		-0.00045291
938		-0.000733659
937.5		-0.000970109
937		-0.000510391
936.5		-0.000692011
936		-0.001297009
935.5		-0.001142618
935		-0.000715091
934.5		-0.000874135
934		-0.000136625
933.5		-0.000875248
933		-0.001143873
932.5		-0.00101317
932		-0.001562356
931.5		-0.001156327
931		-0.000796425
930.5		-0.001129229
930		-0.001002456
929.5		-0.001137296
929		-0.000615566
928.5		-0.000588338
928		-0.001038919
927.5		-0.001089319
927		-0.001316744
926.5		-0.001578976
926		-0.000765568
925.5		-0.000905363
925		-0.000910327
924.5		-0.001489311
924		-0.000309782
923.5		-0.000813806
923		-0.001414846
922.5		-0.000651317
922		-0.000721717
921.5		-0.001380514
921		-0.001426487
920.5		-0.001017075
920		-0.000740808
919.5		-0.000971105
919		-0.000278278
918.5		-0.001120146
918		-0.00114486
917.5		-0.000639968
917		-0.00068749
916.5		-0.00104996
916		-0.00097552
915.5		-0.000442102
915		-0.000498542
914.5		-0.000802874
914		-0.001162803
913.5		-0.00121053
913		-0.001255051
912.5		-0.000804595
912		-0.000589009
911.5		-0.001535408
911		-0.001294087
910.5		-0.001007435
910		-0.000876198
909.5		-0.001251478
909		-0.000691594
908.5		-0.001327866
908		-0.00133255
907.5		-0.001513054
907		-0.001446542
906.5		-0.001683266
906		-0.001596874
905.5		-0.000831597
905		-0.001717374
904.5		-0.0005956
904		-0.001537543
903.5		-0.001219933
903		-0.000927928
902.5		-0.0013477
902		-0.001111623
901.5		-0.00142458
901		-0.001283307
900.5		-0.001474839
900		-0.001252181
899.5		-0.000927887
899		9.17E-05
898.5		6.50E-05
898		0.000349212
897.5		0.000799703
897		0.000527991
896.5		0.000293003
896		0.000163242
895.5		0.000164942
895		0.000187891
894.5		0.00015313
894		-0.000108814
893.5		0.000501213
893		0.00015405
892.5		-3.46E-05
892		0.000115568
891.5		0.000441384
891		0.00055809
890.5		0.00018259
890		-1.43E-05
889.5		0.000306233
889		-0.000199151
888.5		6.57E-05
888		0.000514492
887.5		4.30E-05
887		0.000300033
886.5		0.000140103
886		0.000237869
885.5		0.000185682
885		-0.000165459
884.5		0.000781932
884		0.000133629
883.5		0.000653451
883		1.40E-05
882.5		-4.91E-05
882		0.000579825
881.5		0.000218673
881		0.000300527
880.5		3.86E-05
880		0.000221616
879.5		0.000306047
879		0.000527418
878.5		0.00025869
878		0.000159801
877.5		0.00026667
877		2.70E-05
876.5		0.000283452
876		-6.03E-05
875.5		0.000365019
875		0.000364461
874.5		6.22E-05
874		0.00019075
873.5		0.000358235
873		0.000405855
872.5		7.61E-05
872		2.46E-05
871.5		-8.33E-05
871		0.000445255
870.5		0.000278489
870		0.000323622
869.5		0.00025366
869		0.000230854
868.5		0.000409629
868		0.000307791
867.5		0.000406462
867		0.000415399
866.5		0.000353047
866		0.000265387
865.5		0.000517992
865		0.000154727
864.5		-2.42E-05
864		0.000122369
863.5		0.000321292
863		0.00038473
862.5		-5.14E-05
862		4.10E-05
861.5		1.56E-05
861		-0.000162146
860.5		0.000155093
860		0.000100108
859.5		0.000168518
859		0.000147698
858.5		0.000344142
858		0.000453239
857.5		0.000175556
857		0.000101038
856.5		0.000328562
856		0.00012816
855.5		0.000189552
855		0.000228087
854.5		0.000259077
854		2.86E-05
853.5		0.000176956
853		0.000336189
852.5		0.000235113
852		0.000265452
851.5		-1.34E-05
851		0.000196459
850.5		0.000115678
850		0.000351776
849.5		0.000227366
849		9.98E-05
848.5		0.000126139
848		0.000317785
847.5		-0.00013082
847		-3.62E-05
846.5		0.000301509
846		0.000203957
845.5		0.000229986
845		5.84E-05
844.5		9.68E-05
844		0.000134701
843.5		-3.45E-05
843		0.000229294
842.5		4.72E-05
842		0.000279082
841.5		0.00018352
841		8.55E-05
840.5		0.000242642
840		9.96E-05
839.5		0.000390575
839		0.000157097
838.5		9.61E-05
838		0.000200682
837.5		0.000215088
837		3.08E-05
836.5		0.000136329
836		0.000130334
835.5		-7.45E-06
835		7.15E-05
834.5		0.000132299
834		0.000186627
833.5		0.000176752
833		6.51E-05
832.5		2.21E-05
832		-1.05E-05
831.5		0.000154175
831		6.42E-05
830.5		0.000191458
830		0.000145352
829.5		-4.89E-05
829		0.000166213
828.5		0.000195528
828		0.000142985
827.5		0.000132111
827		0.000179256
826.5		0.000124718
826		0.000251195
825.5		7.48E-05
825		0.000184691
824.5		0.000316239
824		0.000241216
823.5		0.000247141
823		0.000259069
822.5		6.82E-05
822		0.000148471
821.5		0.000136121
821		0.000123249
820.5		0.000131667
820		8.14E-05
819.5		0.000254472
819		0.000247799
818.5		0.000382397
818		-3.17E-05
817.5		4.42E-05
817		1.10E-05
816.5		0.000188644
816		0.000106633
815.5		0.000151181
815		8.02E-05
814.5		0.000185414
814		0.000262179
813.5		8.11E-05
813		1.18E-05
812.5		0.000250328
812		9.22E-05
811.5		0.000117303
811		0.000136292
810.5		8.35E-05
810		0.000245361
809.5		7.04E-05
809		-1.05E-05
808.5		6.91E-05
808		0.00017444
807.5		0.000151979
807		9.37E-05
806.5		0.00035696
806		0.000198315
805.5		0.000211277
805		6.88E-05
804.5		4.67E-05
804		4.61E-05
803.5		-0.000101606
803		7.39E-05
802.5		9.85E-05
802		-1.53E-06
801.5		0.000277581
801		8.00E-05
800.5		0.00011356
800		0.00021531
799.5		-4.88E-05
799		6.84E-06
798.5		5.38E-05
798		5.81E-06
797.5		0.000134844
797		9.32E-05
796.5		0.000139311
796		-0.000293218
795.5		0.000218057
795		0.000121113
794.5		-6.29E-05
794		-5.56E-05
793.5		3.98E-05
793		0.000341196
792.5		1.38E-05
792		0.00047257
791.5		0.000230565
791		2.49E-05
790.5		0.000281158
790		0.000147558
789.5		0.000252566
789		0.00018239
788.5		8.23E-05
788		0.000368755
787.5		0.000405399
787		0.000444584
786.5		0.00036251
786		0.000526269
785.5		0.000407327
785		0.000309022
784.5		0.000514748
784		0.000271563
783.5		0.000195379
783		0.000391033
782.5		0.000260625
782		5.70E-05
781.5		0.000102919
781		0.00016966
780.5		0.000311361
780		0.00018382
779.5		0.000206924
779		0.000192114
778.5		0.000124869
778		0.000146576
777.5		0.000211804
777		0.000218089
776.5		0.000335846
776		0.000377922
775.5		0.000107923
775		8.95E-05
774.5		3.26E-07
774		0.000143438
773.5		0.000156503
773		2.35E-05
772.5		2.15E-05
772		0.000181419
771.5		0.000237525
771		-4.39E-05
770.5		0.000364556
770		-3.51E-05
769.5		-6.78E-05
769		0.000193883
768.5		5.14E-06
768		0.000253812
767.5		0.000414222
767		0.000627185
766.5		0.000578718
766		0.000500108
765.5		0.000478011
765		0.000322793
764.5		0.000322034
764		0.000360309
763.5		0.000252364
763		-0.000143576
762.5		5.10E-05
762		-1.20E-05
761.5		0.000142872
761		0.000197843
760.5		0.000230316
760		0.000142268
759.5		-8.14E-06
759		9.73E-05
758.5		7.16E-05
758		0.000218213
757.5		3.66E-06
757		0.000125216
756.5		4.57E-05
756		-0.000102496
755.5		5.36E-05
755		0.000236675
754.5		4.12E-05
754		0.000162185
753.5		0.00014877
753		-0.000163722
752.5		2.51E-05
752		-4.56E-06
751.5		0.000133321
751		1.44E-05
750.5		-0.000197684
750		-2.90E-06
749.5		0.000128449
749		0.000107445
748.5		9.91E-07
748		0.000113398
747.5		-3.14E-05
747		0.000191347
746.5		6.83E-05
746		6.65E-07
745.5		-0.000143363
745		9.03E-05
744.5		0.000140092
744		0.000246484
743.5		0.000152964
743		6.51E-05
742.5		0.000173129
742		-8.12E-05
741.5		-0.000213148
741		0.000268531
740.5		9.98E-05
740		0.000132205
739.5		0.000156953
739		6.79E-05
738.5		2.87E-05
738		-3.49E-05
737.5		0.000121423
737		-0.00010634
736.5		-0.000132609
736		-2.84E-05
735.5		0.000148563
735		-7.78E-05
734.5		0.000199912
734		2.57E-05
733.5		0.000125179
733		-8.19E-05
732.5		0.000106113
732		0.00013882
731.5		-2.07E-05
731		6.69E-05
730.5		0.000357868
730		1.15E-05
729.5		2.34E-05
729		0.000150431
728.5		0.00013
728		-4.01E-05
727.5		0.000156634
727		0.0001062
726.5		0.000145296
726		0.000255598
725.5		0.00021538
725		0.000138531
724.5		1.06E-05
724		-7.86E-05
723.5		8.24E-05
723		0.000161415
722.5		0.000160305
722		1.03E-05
721.5		-2.38E-05
721		0.000186965
720.5		0.000130981
720		0.000223639
719.5		-2.43E-06
719		2.70E-05
718.5		0.00018105
718		0.000243645
717.5		0.000198355
717		3.44E-06
716.5		9.80E-05
716		9.02E-05
715.5		7.28E-05
715		-5.79E-05
714.5		-2.15E-05
714		-7.41E-06
713.5		-1.12E-05
713		-1.89E-05
712.5		-0.000213902
712		7.17E-05
711.5		5.08E-05
711		-0.000199968
710.5		-4.45E-05
710		-0.000100562
709.5		0.000165304
709		0.000121182
708.5		0.000330583
708		-7.04E-05
707.5		0.000180275
707		0.000150242
706.5		0.000116622
706		0.000525599
705.5		0.000111751
705		0.000171033
704.5		0.000219877
704		0.000153208
703.5		5.10E-05
703		0.000212476
702.5		-9.91E-05
702		0.00028889
701.5		8.85E-05
701		-1.90E-05
700.5		0.000176282
700		-0.000117786
699.5		0.000148713
699		0.000215531
698.5		0.000206906
698		-9.87E-05
697.5		6.33E-05
697		5.38E-05
696.5		1.74E-05
696		-0.000132721
695.5		0.000186452
695		0.000126392
694.5		1.16E-06
694		9.88E-05
693.5		0.000105199
693		0.000191755
692.5		-9.00E-05
692		0.000138098
691.5		0.000193141
691		0.00016757
690.5		-9.16E-06
690		9.21E-05
689.5		0.000146285
689		0.000158041
688.5		3.27E-05
688		2.72E-06
687.5		9.26E-05
687		0.000277129
686.5		0.000275248
686		0.000251949
685.5		0.000264956
685		-4.01E-05
684.5		-7.64E-05
684		-0.000103827
683.5		0.000135581
683		5.17E-06
682.5		-1.14E-05
682		3.03E-05
681.5		0.000172259
681		8.56E-05
680.5		2.81E-05
680		3.36E-05
679.5		6.79E-05
679		9.93E-05
678.5		0.000161311
678		9.49E-05
677.5		-2.25E-05
677		8.73E-05
676.5		0.000138217
676		0.000136629
675.5		-5.85E-06
675		0.000143115
674.5		0.000114299
674		0.000131904
673.5		0.000364053
673		9.58E-05
672.5		-1.22E-05
672		8.60E-05
671.5		0.000147692
671		0.000255195
670.5		0.00012227
670		-2.72E-05
669.5		6.40E-05
669		-1.83E-05
668.5		5.06E-05
668		5.72E-05
667.5		7.75E-05
667		0.000279927
666.5		2.45E-05
666		0.000127041
665.5		0.0001158
665		0.000149296
664.5		0.000170398
664		0.000234579
663.5		-3.25E-06
663		0.000210981
662.5		-2.84E-07
662		7.43E-05
661.5		0.000115836
661		4.49E-05
660.5		6.48E-05
660		0.000163253
659.5		-9.99E-05
659		0.000298309
658.5		0.000213261
658		8.15E-05
657.5		-5.86E-05
657		-5.53E-05
656.5		-2.90E-05
656		5.88E-05
655.5		8.66E-05
655		5.75E-05
654.5		-0.000110006
654		2.84E-05
653.5		0.000216987
653		0.000173958
652.5		0.000134663
652		9.81E-05
651.5		0.00014808
651		0.000121742
650.5		0.000137585
650		0.000156264
649.5		-3.25E-05
649		-1.75E-05
648.5		3.19E-05
648		5.43E-05
647.5		0.000296456
647		0.000230542
646.5		0.000166181
646		-3.95E-05
645.5		9.97E-05
645		-1.67E-05
644.5		4.57E-05
644		8.96E-05
643.5		7.46E-05
643		-7.57E-05
642.5		0.000205839
642		-3.36E-05
641.5		-0.000148749
641		0.000154588
640.5		-4.49E-05
640		-2.46E-05
639.5		1.84E-05
639		0.00011854
638.5		0.000106926
638		1.69E-05
637.5		0.000122453
637		-2.23E-06
636.5		-4.41E-05
636		0.000141721
635.5		0.000188199
635		0.000105068
634.5		0.000231721
634		9.94E-05
633.5		3.60E-05
633		4.41E-05
632.5		0.000445195
632		2.74E-05
631.5		0.000295078
631		0.000143213
630.5		-0.000101778
630		7.65E-06
629.5		0.000106393
629		1.15E-05
628.5		5.58E-05
628		7.48E-05
627.5		0.000129577
627		5.28E-05
626.5		0.00013649
626		7.48E-05
625.5		-4.97E-05
625		8.63E-05
624.5		9.56E-05
624		5.18E-05
623.5		0.000129436
623		0.000292248
622.5		-2.18E-05
622		0.00019665
621.5		0.000240911
621		0.000173518
620.5		0.000277765
620		0.000292158
619.5		0.000103574
619		0.000157577
618.5		0.000200846
618		6.19E-05
617.5		0.000361656
617		0.000183925
616.5		0.000250021
616		0.000319137
615.5		0.000238799
615		0.000388784
614.5		0.000313804
614		0.000206086
613.5		0.000289728
613		0.000218059
612.5		0.000224135
612		0.000304202
611.5		0.000306251
611		0.000207757
610.5		0.000298774
610		0.000179381
609.5		0.000287528
609		8.66E-05
608.5		0.00041782
608		0.000558798
607.5		0.000435911
607		0.000434014
606.5		0.000360263
606		0.000507833
605.5		0.000581711
605		0.000472592
604.5		0.000291791
604		0.000447784
603.5		0.000282794
603		0.00041598
602.5		0.000310559
602		0.000344695
601.5		0.000567829
601		0.000221811
600.5		0.000464625
600		0.000564248
599.5		0.000569867
599		0.00061744
598.5		0.000747046
598		0.000696446
597.5		0.000689488
597		0.000633613
596.5		0.00092317
596		0.000976436
595.5		0.000835891
595		0.000901204
594.5		0.000876516
594		0.001108268
593.5		0.001208887
593		0.001614346
592.5		0.001458092
592		0.001167567
591.5		0.001829235
591		0.001850695
590.5		0.001901626
590		0.00217031
589.5		0.002163117
589		0.002525835
588.5		0.002337829
588		0.002950968
587.5		0.003425548
587		0.003736306
586.5		0.004161144
586		0.004402012
585.5		0.004999399
585		0.005439792
584.5		0.00585635
584		0.006531564
583.5		0.00735802
583		0.008085955
582.5		0.008997585
582		0.009990205
581.5		0.011039337
581		0.012127551
580.5		0.013404052
580		0.014943053
579.5		0.01664504
579		0.018277306
578.5		0.020176725
578		0.022402572
577.5		0.024693854
577		0.027521662
576.5		0.031006936
576		0.033997692
575.5		0.037842486
575		0.042071175
574.5		0.046967547
574		0.052321363
573.5		0.058338802
573		0.065273061
572.5		0.073095798
572		0.081936054
571.5		0.091729164
571		0.103151254
570.5		0.116058648
570		0.131187037
569.5		0.14762865
569		0.167708054
568.5		0.190380395
568		0.216471151
567.5		0.246743143
567		0.281882852
566.5		0.323742956
566		0.372322261
565.5		0.427622616
565		0.494956493
564.5		0.573335052
564		0.665440142
563.5		0.777752698
563		0.910452366
562.5		1.068288088
562		1.259535551
561.5		1.491677999
561		1.769382
560.5		2.110439539
560		2.537026882
559.5		3.052146673
559		3.67734766
558.5		4.475124359
558		5.455565929
557.5		6.663723469
557		8.208286285
556.5		10.12674809
556		12.47781181
555.5		15.40787697
555		18.99748802
554.5		23.29114723
554		28.38443565
553.5		34.35136795
553		40.84670258
552.5		47.73363495
552		54.89707565
551.5		61.72451401
551		67.8578186
550.5		73.22549438
550		77.44758606
549.5		80.48577881
549		82.4905014
548.5		83.63975525
548		84.13999939
547.5		84.20743561
547		84.02818298
546.5		83.7529068
546		83.47368622
545.5		83.26753235
545		83.16209412
544.5		83.16648865
544		83.31829071
543.5		83.58766174
543		83.94182587
542.5		84.37652588
542		84.87095642
541.5		85.41233063
541		85.95561218
540.5		86.49189758
540		86.99281311
539.5		87.46109772
539		87.85747528
538.5		88.21647644
538		88.51538086
537.5		88.77519989
537		88.97551727
536.5		89.12515259
536		89.2345047
535.5		89.31355286
535		89.36826324
534.5		89.41504669
534		89.43663788
533.5		89.45413208
533		89.4858551
532.5		89.51616669
532		89.58438873
531.5		89.64002991
531		89.7071991
530.5		89.7775116
530		89.86065674
529.5		89.94593048
529		90.04929352
528.5		90.14385986
528		90.2452774
527.5		90.34427643
527		90.40997314
526.5		90.50035095
526		90.57588196
525.5		90.63318634
525		90.69064331
524.5		90.74610138
524		90.77672577
523.5		90.80115509
523		90.81242371
522.5		90.82408142
522		90.8113327
521.5		90.80524445
521		90.79166412
520.5		90.76625824
520		90.73839569
519.5		90.70839691
519		90.67462921
518.5		90.6410675
518		90.59976196
517.5		90.57187653
517		90.53089905
516.5		90.49773407
516		90.45826721
515.5		90.42225647
515		90.38578033
514.5		90.34619141
514		90.31968689
513.5		90.28634644
513		90.25418091
512.5		90.23205566
512		90.20973969
511.5		90.18528748
511		90.16677094
510.5		90.15444183
510		90.14206696
509.5		90.13427734
509		90.1339798
508.5		90.1263504
508		90.1361618
507.5		90.14635468
507		90.16197968
506.5		90.18093872
506		90.20371246
505.5		90.22569275
505		90.25308228
504.5		90.30661011
504		90.33132935
503.5		90.35988617
503		90.3918457
502.5		90.42250824
502		90.45484161
501.5		90.47406006
501		90.48616028
500.5		90.50834656
500		90.5227356
499.5		90.53295135
499		90.53674316
498.5		90.53775787
498		90.53030396
497.5		90.52635956
497		90.51535797
496.5		90.50982666
496		90.48860931
495.5		90.47177124
495		90.45497894
494.5		90.44533539
494		90.42875671
493.5		90.41090393
493		90.40732574
492.5		90.39547729
492		90.38905334
491.5		90.39025879
491		90.3983078
490.5		90.40116119
490		90.41339111
489.5		90.42647552
489		90.43006134
488.5		90.43256378
488		90.44284058
487.5		90.44837952
487		90.44882965
486.5		90.44530487
486		90.43813324
485.5		90.42396545
485		90.39916992
484.5		90.37743378
484		90.33763885
483.5		90.29597473
483		90.25543213
482.5		90.19611359
482		90.13951111
481.5		90.08013916
481		90.00482178
480.5		89.93618011
480		89.86336517
479.5		89.78311157
479		89.70854187
478.5		89.6314621
478		89.55656433
477.5		89.48916626
477		89.40471649
476.5		89.34463501
476		89.27844238
475.5		89.20696259
475		89.14483643
474.5		89.08436584
474		89.03453064
473.5		88.98061371
473		88.93508911
472.5		88.8931427
472		88.8563385
471.5		88.81164551
471		88.78284454
470.5		88.75011444
470		88.71087646
469.5		88.675354
469		88.6386795
468.5		88.60248566
468		88.55857849
467.5		88.51433563
467		88.46131897
466.5		88.40344238
466		88.33876038
465.5		88.26463318
465		88.19394684
464.5		88.11499786
464		88.03933716
463.5		87.95383453
463		87.85921478
462.5		87.77578735
462		87.68508148
461.5		87.58401489
461		87.50300598
460.5		87.41088867
460		87.32110596
459.5		87.22740173
459		87.13796997
458.5		87.05510712
458		86.97210693
457.5		86.88567352
457		86.80089569
456.5		86.72296906
456		86.63967133
455.5		86.55680084
455		86.47096252
454.5		86.39295959
454		86.30103302
453.5		86.20961761
453		86.10948944
452.5		85.98742676
452		85.88140869
451.5		85.76285553
451		85.64665222
450.5		85.50931549
450		85.37550354
449.5		85.22446442
449		85.06454468
448.5		84.9145813
448		84.74189758
447.5		84.6003418
447		84.4496994
446.5		84.27341461
446		84.13645935
445.5		84.01822662
445		83.90929413
444.5		83.82704163
444		83.76673126
443.5		83.7323761
443		83.73962402
442.5		83.73524475
442		83.72415924
441.5		83.73226929
441		83.74869537
440.5		83.74458313
440		83.72835541
439.5		83.69096375
439		83.64597321
438.5		83.53064728
438		83.40466309
437.5		83.25230408
437		83.08026123
436.5		82.89826202
436		82.7159729
435.5		82.56082916
435		82.37865448
434.5		82.22788239
434		82.10467529
433.5		81.99787903
433		81.94080353
432.5		81.88261414
432		81.85142517
431.5		81.82665253
431		81.79172516
430.5		81.74398804
430		81.67510986
429.5		81.57730865
429		81.44329071
428.5		81.29118347
428		81.10327911
427.5		80.88830566
427		80.67672729
426.5		80.45626068
426		80.24590302
425.5		80.08880615
425		79.9059906
424.5		79.75565338
424		79.62594604
423.5		79.51635742
423		79.38909149
422.5		79.24258423
422		79.07915497
421.5		78.85536194
421		78.58522034
420.5		78.27350616
420		77.92353821
419.5		77.51902008
419		77.13114929
418.5		76.70282745
418		76.2771759
417.5		75.91230011
417		75.60501099
416.5		75.32295227
416		75.09344482
415.5		74.90564728
415		74.74429321
414.5		74.5810318
414		74.40982819
413.5		74.16838837
413		73.86814117
412.5		73.51886749
412		73.04445648
411.5		72.46065521
411		71.82678986
410.5		71.1371994
410		70.37261963
409.5		69.53063965
409		68.65150452
408.5		67.68399048
408		66.63556671
407.5		65.51618958
407		64.18965149
406.5		62.70083618
406		61.03629303
405.5		59.13006592
405		56.9774704
404.5		54.66094589
404		52.14657211
403.5		49.37994003
403		46.49795532
402.5		43.51510239
402		40.31742096
401.5		37.03065491
401		33.73403931
400.5		30.30865097
400		26.87036133
399.5		23.48097229
399		20.14862823
398.5		16.94957352
398		14.03201485
397.5		11.37902451
397		8.993762016
396.5		7.003018856
396		5.354521751
395.5		3.974781513
395		2.908489227
394.5		2.095413923
394		1.475084782
393.5		1.01920867
393		0.692890465
392.5		0.460347891
392		0.301253408
391.5		0.195234433
391		0.125957713
390.5		0.080508329
390		0.053095747
389.5		0.036350511
389		0.025819357
388.5		0.019903405
388		0.016294843
387.5		0.014424518
387		0.012842812
386.5		0.012089947
386		0.011039596
385.5		0.010839262
385		0.010346924
384.5		0.009798458
384		0.009636013
383.5		0.009249548
383		0.009508076
382.5		0.009324561
382		0.0092532
381.5		0.00943864
381		0.009376634
380.5		0.009108823
380		0.008864759
379.5		0.008404509
379		0.00779339
378.5		0.00735865
378		0.006530526
377.5		0.005707568
377		0.005163376
376.5		0.004657947
376		0.004040235
375.5		0.003778861
375		0.003913882
374.5		0.003349912
374		0.003363542
373.5		0.003254694
373		0.00275919
372.5		0.002978452
372		0.002360442
371.5		0.002149224
371		0.001641116
370.5		0.001403224
370		0.001002486
369.5		0.000856715
369		0.000802149
368.5		0.000692378
368		0.000424158
367.5		0.00023882
367		0.000325294
366.5		0.000232552
366		0.000371579
365.5		-9.82E-07
365		0.000147458
364.5		7.95E-05
364		0.000140622
363.5		0.000198837
363		0.000272639
362.5		0.000297182
362		0.000201137
361.5		0.00021726
361		0.00017085
360.5		0.000180365
360		8.52E-05
359.5		0.00032565
359		0.000480566
358.5		0.00012301
358		-4.90E-05
357.5		0.000127094
357		0.000198382
356.5		0.000243089
356		0.000137559
355.5		0.000153856
355		2.84E-05
354.5		0.000446474
354		0.000361919
353.5		0.000435356
353		0.000384722
352.5		9.20E-05
352		0.000254844
351.5		0.000281333
351		0.000158195
350.5		0.000355027
350		-2.45E-05
349.5		-0.000373211
349		0.000131019
348.5		0.000176688
348		0.000272828
347.5		0.000318035
347		0.000550751
346.5		-8.59E-05
346		0.000261494
345.5		0.000169303
345		7.87E-05
344.5		3.83E-05
344		0.000494114
343.5		0.000154871
343		7.64E-05
342.5		8.11E-05
342		-8.07E-05
341.5		0.000199476
341		0.000381964
340.5		0.000197539
340		5.20E-05
339.5		0.000356409
339		0.000255179
338.5		0.000205806
338		0.000142044
337.5		6.96E-05
337		0.000132413
336.5		0.000266516
336		-0.000120998
335.5		-0.000100939
335		0.000157757
334.5		0.000151728
334		-5.24E-05
333.5		0.000192852
333		0.000145073
332.5		1.04E-05
332		0.000110246
331.5		0.000197928
331		1.26E-05
330.5		0.000335972
330		0.000265862
329.5		0.000195335
329		0.000202987
328.5		0.000263729
328		-1.41E-05
327.5		0.000207793
327		0.000281735
326.5		0.000206167
326		0.000189513
325.5		0.000144607
325		0.000220119
324.5		0.000166678
324		0.000204525
323.5		0.000250998
323		-3.33E-05
322.5		0.000184656
322		0.000137492
321.5		0.000220619
321		4.03E-05
320.5		9.22E-05
320		-0.000180257
319.5		0.000130466
319		4.72E-05
318.5		0.000181129
318		0.000244858
317.5		-3.55E-05
317		0.000157836
316.5		0.000217678
316		-0.00012604
315.5		0.000301117
315		0.000226202
314.5		0.000107511
314		0.000160661
313.5		0.00013846
313		3.55E-05
312.5		0.000288855
312		3.08E-06
311.5		0.000213089
311		0.00018655
310.5		6.41E-05
310		0.000243221
309.5		7.53E-05
309		0.000231742
308.5		0.000201566
308		1.63E-05
307.5		-2.65E-05
307		0.000132672
306.5		5.98E-05
306		-9.41E-05
305.5		0.000267618
305		-8.76E-05
304.5		4.33E-05
304		-2.70E-05
303.5		3.19E-05
303		4.03E-05
302.5		0.000119293
302		0.000284809
301.5		0.000253476
301		0.000316126
300.5		2.80E-05
300		0.000258083
